T (K) P (kPa) Viscosity (Pa*s) Uncertainty (Pa*s)
126.014	1080	0.0139	0.00106
126.014	3040	0.01414	0.00107
126.014	5000	0.01442	0.00108
126.014	7460	0.01511	0.0011
132.904	1080	0.009097	0.000864
132.904	3040	0.009318	0.000873
132.904	5000	0.009571	0.000883
132.904	7460	0.01	0.0009
132.904	9910	0.01042	0.000917
132.904	19720	0.01223	0.00099
132.904	29530	0.01429	0.00107
152.404	1080	0.003426	0.000369
152.404	3040	0.003611	0.000372
152.404	5000	0.003751	0.000375
152.404	7460	0.003883	0.000378
152.404	9910	0.004043	0.000381
152.404	19720	0.004654	0.000393
152.404	29530	0.005376	0.000408
152.404	39340	0.006158	0.000262
152.404	49150	0.00704	0.000441
152.404	58960	0.007967	0.000459
171.543	1080	0.001823	0.000218
171.543	3040	0.00189	0.000219
171.543	5000	0.001955	0.000339
171.543	7460	0.00204	0.000341
171.543	9910	0.002127	0.000343
171.543	19720	0.002435	0.000349
171.543	29530	0.002769	0.000355
171.543	39340	0.003149	0.000231
171.543	49150	0.003601	0.000372
171.543	58960	0.004029	0.000381
212.47	1080	0.000697	0.000207
212.47	3040	0.000722	0.000207
212.47	5000	0.000743	0.000207
212.47	7460	0.000771	0.000208
212.47	9910	0.000798	0.000208
212.47	19720	0.000919	0.000209
212.47	29530	0.001044	0.00021
212.47	39340	0.001206	0.000212
212.47	49150	0.001375	0.000214
212.47	58960	0.001487	0.000215
212.48	1080	0.000704	0.000207
212.48	3040	0.000725	0.000207
212.48	5000	0.000745	0.000207
212.48	7460	0.000773	0.000208
212.48	9910	0.000803	0.000208
212.48	19720	0.000921	0.000209
212.48	29530	0.001058	0.000211
212.48	39340	0.001207	0.000212
212.48	49150	0.001376	0.000214
232.828	1080	0.000482	0.000205
232.828	5000	0.000524	0.000205
232.828	9910	0.000571	0.000206
232.828	19720	0.000662	0.000207
232.828	29530	0.000762	0.000208
232.828	39340	0.000866	0.000209
232.828	49150	0.000974	0.00021
232.828	58960	0.001091	0.000211
232.968	1080	0.000479	0.000205
232.968	3040	0.000507	0.000205
232.968	5000	0.000527	0.000205
232.968	7460	0.000547	0.000205
232.968	9910	0.000568	0.000206
232.968	19720	0.000659	0.000207
232.968	29530	0.000751	0.000208
232.968	39340	0.000858	0.000209
232.968	58960	0.00108	0.000211
252.874	1080	0.000343	0.000203
252.874	3040	0.000357	0.000204
252.874	5000	0.00038	0.000204
252.874	7460	0.000396	0.000204
252.874	9910	0.000418	0.000204
252.874	19720	0.000493	0.000205
252.874	29530	0.00057	0.000206
252.874	39340	0.000647	0.000206
252.874	58960	0.000814	0.000208
252.994	1080	0.000343	0.000203
252.994	5000	0.000383	0.000204
252.994	9910	0.000421	0.000204
252.994	19720	0.000498	0.000205
252.994	29530	0.000572	0.000206
252.994	39340	0.000652	0.000207
252.994	58960	0.000819	0.000208
272.94	1080	0.000254	0.000203
272.94	5000	0.000284	0.000203
272.94	9910	0.000316	0.000203
272.94	19720	0.00038	0.000204
272.94	29530	0.000442	0.000204
272.94	39340	0.000506	0.000205
272.94	58960	0.000638	0.000206
272.96	2060	0.000257	0.000203
272.96	3530	0.000273	0.000203
272.96	5000	0.000284	0.000203
272.96	7460	0.000298	0.000203
272.96	9910	0.000315	0.000203
272.96	19720	0.000377	0.000204
272.96	29530	0.000442	0.000204
272.96	39340	0.000504	0.000205
272.96	58960	0.000638	0.000206
272.97	1080	0.000247	0.000202
272.97	3040	0.000268	0.000203
272.97	5000	0.000282	0.000203
272.97	7460	0.000297	0.000203
272.97	9910	0.000314	0.000203
272.97	19720	0.000381	0.000204
272.97	29530	0.000442	0.000204
286.937	1080	0.000201	0.000202
286.937	2060	0.00021	0.000202
286.937	3040	0.000217	0.000202
286.937	5000	0.000225	0.000202
286.937	7460	0.000247	0.000202
286.937	9910	0.000262	0.000203
286.937	19720	0.00031	0.000203
286.937	29530	0.000377	0.000204
286.937	39340	0.000433	0.000204
286.937	49150	0.000489	0.000205
286.937	58960	0.000537	0.000205
286.997	2060	0.000205	0.000202
287.737	1080	0.0001991	0.000202
287.737	5000	0.000224	0.000202
287.737	9910	0.00026	0.000203
287.737	19720	0.000316	0.000203
287.737	29530	0.000368	0.000204
287.737	39340	0.000422	0.000204
287.737	49150	0.000479	0.000205
287.737	58960	0.000539	0.000205
287.877	3040	0.000219	0.000202
287.877	5000	0.000226	0.000202
287.877	7460	0.000244	0.000202
287.877	9910	0.00026	0.000203
287.877	19720	0.000317	0.000203
287.877	29530	0.000373	0.000204
287.877	39340	0.000427	0.000204
287.877	58960	0.00054	0.000205
292.975	1080	0.000182	0.000202
292.975	5000	0.000212	0.000202
292.975	7460	0.000227	0.000202
292.975	9910	0.000242	0.000202
292.975	19720	0.000297	0.000203
292.975	29530	0.000351	0.000204
292.975	39340	0.000404	0.000204
292.975	58960	0.000513	0.000205
313.01	1370	0.0001263	0.000201
313.01	1470	0.0001268	0.000201
313.01	1570	0.0001281	0.000201
313.01	1670	0.0001295	0.000201
313.01	1770	0.00013	0.000201
313.01	1860	0.0001315	0.000201
313.01	1960	0.0001321	0.000201
313.01	2060	0.0001329	0.000201
313.01	2500	0.0001366	0.000201
313.01	3040	0.0001414	0.000201
313.01	3530	0.0001454	0.000201
313.01	4020	0.0001494	0.000201
313.01	4510	0.0001527	0.000202
313.01	5000	0.0001561	0.000202
313.01	9910	0.0001867	0.000202
313.01	19720	0.000238	0.000202
313.01	29530	0.000285	0.000203
313.01	39340	0.000333	0.000203
313.01	49150	0.000379	0.000204
313.01	58960	0.000422	0.000204
333.134	5000	0.0001141	0.000201
333.134	9910	0.0001473	0.000201
333.134	19720	0.0001974	0.000202
333.134	29530	0.000239	0.000202
333.134	39340	0.000281	0.000203
333.134	49150	0.000323	0.000203
333.134	58960	0.00036	0.000204
343.062	2650	6.62E-05	0.000201
343.062	2750	6.85E-05	0.000201
343.062	2850	7.09E-05	0.000201
343.062	2940	7.25E-05	0.000201
343.062	3040	7.46E-05	0.000201
343.062	3140	7.59E-05	0.000201
343.062	3240	7.75E-05	0.000201
343.062	3330	7.90E-05	0.000201
343.062	3430	8.05E-05	0.000201
343.062	3530	8.15E-05	0.000201
343.062	4020	8.78E-05	0.000201
343.062	4510	9.27E-05	0.000201
343.062	5000	9.77E-05	0.000201
343.062	5490	0.0001021	0.000201
343.062	7460	0.0001162	0.000201
343.062	9910	0.0001311	0.000201
343.062	19720	0.0001803	0.000202
343.062	29530	0.000221	0.000202
343.062	39340	0.000259	0.000203
343.062	58960	0.000335	0.000203
303.943	4980	0.0001831	2.13E-06
303.943	5000	0.0001831	2.13E-06
303.943	9900	0.0002143	2.44E-06
303.943	30040	0.000318	3.48E-06
303.943	50190	0.0004165	4.46E-06
333.544	5010	0.0001147	1.45E-06
333.544	9910	0.000147	1.77E-06
333.544	30050	0.000224	2.54E-06
333.544	50160	0.0003236	3.54E-06
126.014	1080	0.0139	0.000217
126.014	3040	0.01414	0.00022
126.014	5000	0.01442	0.000223
126.014	7460	0.01511	0.000231
132.904	1080	0.009097	0.000159
132.904	3040	0.009318	0.000162
132.904	5000	0.009571	0.000165
132.904	7460	0.01	0.00017
132.904	9910	0.01042	0.000175
132.904	19720	0.01223	0.000197
132.904	29530	0.01429	0.000221
152.404	1080	0.003426	5.45E-05
152.404	3040	0.003611	5.69E-05
152.404	5000	0.003751	5.88E-05
152.404	7460	0.003883	6.05E-05
152.404	9910	0.004043	6.26E-05
152.404	19720	0.004654	7.05E-05
152.404	29530	0.005376	7.99E-05
152.404	39340	0.006158	9.01E-05
152.404	49150	0.00704	0.000102
152.404	58960	0.007967	0.000146
171.543	1080	0.001323	2.72E-05
171.543	3040	0.00189	3.46E-05
171.543	5000	0.001955	3.54E-05
171.543	7460	0.00204	3.65E-05
171.543	9910	0.002127	3.77E-05
171.543	19720	0.002435	4.17E-05
171.543	29530	0.002769	4.60E-05
171.543	39340	0.003149	5.09E-05
171.543	49150	0.003601	5.68E-05
171.543	58960	0.004029	6.24E-05
212.47	1080	0.000697	1.55E-05
212.47	3040	0.000722	1.58E-05
212.47	5000	0.000743	1.61E-05
212.47	7460	0.000771	5.93E-05
212.47	9910	0.000798	5.96E-05
212.47	19720	0.000919	2.19E-05
212.47	29530	0.001044	2.36E-05
212.47	39340	0.001206	2.57E-05
212.47	49150	0.001375	2.79E-05
212.47	58960	0.001487	2.93E-05
232.968	1080	0.000479	1.22E-05
232.968	3040	0.000507	1.26E-05
232.968	5000	0.000527	1.29E-05
232.968	7460	0.000547	1.32E-05
232.968	9910	0.000568	1.35E-05
232.968	19720	0.000659	1.49E-05
232.968	29530	0.000751	1.98E-05
232.968	39340	0.000858	2.12E-05
232.968	58960	0.00108	2.40E-05
252.874	1080	0.000343	1.01E-05
252.874	3040	0.000357	1.04E-05
252.874	5000	0.00038	1.07E-05
252.874	7460	0.000396	1.09E-05
252.874	9910	0.000418	1.13E-05
252.874	19720	0.000493	1.24E-05
252.874	29530	0.00057	1.35E-05
252.874	39340	0.000647	1.47E-05
252.874	58960	0.000814	1.72E-05
272.97	1080	0.000247	8.70E-06
272.97	3040	0.000268	9.02E-06
272.97	5000	0.000282	9.23E-06
272.97	7460	0.000297	9.45E-06
272.97	9910	0.000314	9.71E-06
272.97	19720	0.000381	1.07E-05
272.97	29530	0.000442	1.16E-05
286.937	1080	0.000201	8.01E-06
286.937	3040	0.000217	8.25E-06
286.937	5000	0.000225	8.37E-06
286.937	7460	0.000247	8.70E-06
286.937	9910	0.000262	8.93E-06
286.937	19720	0.00031	9.65E-06
286.937	29530	0.000377	1.07E-05
286.937	39340	0.000433	1.15E-05
286.937	49150	0.000489	1.23E-05
286.937	58960	0.000537	1.31E-05
292.975	1080	0.000182	7.73E-06
292.975	5000	0.000212	8.18E-06
292.975	7460	0.000227	8.40E-06
292.975	9910	0.000242	8.63E-06
292.975	19720	0.000297	9.45E-06
292.975	29530	0.000351	1.03E-05
292.975	39340	0.000404	1.11E-05
292.975	58960	0.000513	1.27E-05
313.01	3040	0.0001414	7.12E-06
313.01	5000	0.0001561	7.34E-06
313.01	9910	0.0001867	7.80E-06
313.01	19720	0.000238	8.57E-06
313.01	29530	0.000285	9.27E-06
313.01	39340	0.000333	1.00E-05
313.01	49150	0.000379	1.07E-05
313.01	58960	0.000422	1.13E-05
343.002	3040	7.46E-05	6.12E-06
343.062	5000	9.77E-05	6.47E-06
343.062	7460	0.0001162	6.74E-06
343.062	9910	0.0001311	6.97E-06
343.062	19720	0.0001803	7.70E-06
343.062	29530	0.000221	8.31E-06
343.062	39340	0.000259	8.88E-06
343.062	58960	0.000335	1.00E-05
313.01	1282.62	0.0001251	0.000201
333.134	2057.16	8.21E-05	0.000201
343.062	2559.87	6.20E-05	0.000201
343.062	2559.87	6.34E-05	0.000201
313.01	1282.62	0.0001251	0.000201
333.134	2057.16	8.21E-05	0.000201
343.062	2559.87	6.20E-05	0.000201
343.062	2559.87	6.34E-05	0.000201
140	0.025855	0.02101	0.0171
150	0.112026	0.01084	0.00862
160	0.390805	0.006097	0.00475
170	1.14467	0.003683	0.00281
180	2.90746	0.002361	0.00178
190	6.5678	0.001593	0.00118
200	13.4606	0.001122	0.000823
210	25.4312	0.0008216	0.000597
220	44.8656	0.0006221	0.00045
230	74.6868	0.0004857	0.00035
240	118.327	0.0003892	0.00028
250	179.684	0.000317	0.000229
260	263.08	0.0002624	0.00019
270	373.225	0.0002202	0.000161
280	515.206	0.0001871	0.000138
290	694.514	0.0001608	0.00012
