T (K) P (kPa) Viscosity (Pa*s) Uncertainty (Pa*s)
298.134 26400 0.000641 2.60E-05
298.134 50700 0.000814 3.30E-05
298.134 100500 0.001237 5.10E-05
298.134 200400 0.002482 0.000102
298.134 311900 0.004855 0.0002
298.134 406500 0.00823 0.000339
298.134 499400 0.01362 0.00056
323.127 25100 0.000492 2.00E-05
323.127 52200 0.000634 2.60E-05
323.127 101600 0.000942 3.90E-05
323.127 196800 0.001758 7.20E-05
323.127 310500 0.003273 0.000134
323.127 406800 0.005241 0.000215
323.127 503100 0.008399 0.000346
348.141 25800 0.00039 2.00E-05
348.141 50700 0.000499 2.00E-05
348.141 101500 0.00075 3.10E-05
348.141 200500 0.001396 5.70E-05
348.141 307000 0.002468 0.000101
348.141 412500 0.004035 0.000166
348.141 501400 0.005628 0.000231
373.104 25600 0.000323 1.30E-05
373.104 51000 0.000411 1.70E-05
373.104 101200 0.000613 2.50E-05
373.104 198400 0.001089 4.50E-05
373.104 300100 0.001901 7.80E-05
373.104 403600 0.002974 0.000122
373.104 500500 0.004264 0.000175
298.15 50000 0.000836 3.40E-05
298.15 80000 0.001084 4.50E-05
298.15 120000 0.001471 6.10E-05
298.15 160000 0.001869 7.70E-05
298.15 195000 0.002286 9.50E-05
353.15 50000 0.0005 2.10E-05
353.15 80000 0.000636 2.60E-05
353.15 120000 0.000858 3.50E-05
353.15 160000 0.001134 4.70E-05
353.15 195000 0.001436 6.10E-05
453.15 50000 0.000271 1.10E-05
453.15 80000 0.000347 1.40E-05
453.15 120000 0.000457 1.90E-05
453.15 160000 0.000569 2.40E-05
453.15 195000 0.000678 2.80E-05
197.93 10130 0.00372 2.00E-05
197.93 20130 0.00426 3.00E-05
197.93 30100 0.00475 3.00E-05
197.93 40100 0.00543 3.00E-05
197.93 50100 0.00616 4.00E-05
197.93 60100 0.0069 4.00E-05
197.93 70100 0.00777 5.00E-05
222.91 10100 0.00184 2.00E-05
222.91 20100 0.0021 2.00E-05
222.91 30120 0.00236 2.00E-05
222.91 40100 0.00266 2.00E-05
222.91 50100 0.00298 2.00E-05
222.91 60100 0.00333 2.00E-05
222.91 70100 0.00371 3.00E-05
222.91 80100 0.00416 3.00E-05
222.91 90100 0.00455 3.00E-05
222.91 100050 0.00496 3.00E-05
248.35 10130 0.00106 1.00E-05
248.35 20100 0.00119 1.00E-05
248.35 30100 0.00133 1.00E-05
248.35 40120 0.00148 1.00E-05
248.35 50100 0.00164 1.00E-05
248.35 60100 0.0018 2.00E-05
248.35 70100 0.00199 2.00E-05
248.35 80150 0.00219 2.00E-05
248.35 90100 0.00239 2.00E-05
248.35 100100 0.00261 2.00E-05
273.15 10100 0.000733 9.00E-06
273.15 20130 0.000821 9.00E-06
273.15 30120 0.000914 1.00E-05
273.15 40100 0.00101 1.00E-05
273.15 50100 0.00111 1.00E-05
273.15 60100 0.00122 1.00E-05
273.15 70000 0.00133 1.00E-05
273.15 80100 0.00145 1.00E-05
273.15 90100 0.00159 1.00E-05
273.15 99900 0.00172 2.00E-05
298.15 10100 0.000535 8.00E-06
298.15 10100 0.000539 8.00E-06
298.15 20100 0.000602 9.00E-06
298.15 20250 0.000598 9.00E-06
298.15 30000 0.000667 8.00E-06
298.15 30100 0.000669 8.00E-06
298.15 40050 0.000736 9.00E-06
298.15 40150 0.000733 9.00E-06
298.15 50050 0.000812 9.00E-06
298.15 50150 0.000806 9.00E-06
298.15 60100 0.000886 1.00E-05
298.15 60150 0.000881 1.00E-05
298.15 70000 0.000971 1.00E-05
298.15 70100 0.000961 1.00E-05
298.15 80000 0.00105 1.00E-05
298.15 80100 0.00104 1.00E-05
298.15 90100 0.00114 1.00E-05
298.15 90150 0.00114 1.00E-05
298.15 100100 0.00123 1.00E-05
298.15 100100 0.00124 1.00E-05
323.16 10250 0.000414 7.00E-06
323.16 20150 0.000463 7.00E-06
323.16 30200 0.000514 8.00E-06
323.16 40100 0.000568 8.00E-06
323.16 50250 0.000623 8.00E-06
323.16 60100 0.000679 8.00E-06
323.16 70100 0.000735 9.00E-06
323.16 80100 0.000803 9.00E-06
323.16 90150 0.000869 9.00E-06
323.16 100100 0.000933 1.00E-05
348.16 10100 0.00033 7.00E-06
348.16 20100 0.000372 7.00E-06
348.16 30200 0.000414 7.00E-06
348.16 40250 0.000457 7.00E-06
348.16 50150 0.000512 8.00E-06
348.16 60100 0.000558 8.00E-06
348.16 70100 0.000604 8.00E-06
348.16 80150 0.000662 8.00E-06
348.16 90100 0.00071 9.00E-06
348.16 100100 0.000767 9.00E-06
298.15 5100 0.000501 5.00E-06
308.15 5100 0.000452 5.00E-06
323.15 5100 0.000394 4.00E-06
348.15 400 0.000292 3.00E-06
348.15 5100 0.00032 4.00E-06
363.15 500 0.000257 3.00E-06
363.15 5100 0.000285 3.00E-06
383.15 800 0.000222 3.00E-06
383.15 5100 0.00025 3.00E-06
403.15 900 0.000196 3.00E-06
403.15 5100 0.000222 3.00E-06
303.5 3800 0.000471 5.00E-06
303.5 20100 0.000562 6.00E-06
303.5 50000 0.000762 8.00E-06
303.5 52600 0.00078 8.00E-06
303.5 72200 0.000929 1.00E-05
303.5 100100 0.001171 1.20E-05
303.5 105500 0.001212 1.30E-05
303.5 131700 0.001477 1.50E-05
303.5 150000 0.001669 1.70E-05
303.5 186600 0.002126 2.20E-05
303.5 200300 0.002289 2.40E-05
303.5 215100 0.002538 2.60E-05
303.5 227700 0.002764 2.90E-05
303.5 242300 0.003004 3.10E-05
325.5 11700 0.000414 4.00E-06
325.5 30000 0.000498 5.00E-06
325.5 52800 0.000618 7.00E-06
325.5 76900 0.000761 8.00E-06
325.5 107200 0.000958 1.00E-05
325.5 140500 0.001207 1.20E-05
325.5 168100 0.001435 1.50E-05
325.5 189700 0.00164 1.70E-05
325.5 209800 0.00185 1.90E-05
325.5 229800 0.002061 2.20E-05
325.5 241900 0.002202 2.40E-05
428.8 9600 0.000183 2.00E-06
428.8 21800 0.000216 2.00E-06
428.8 35500 0.000258 3.00E-06
428.8 52900 0.000306 3.00E-06
428.8 70700 0.000357 5.00E-06
428.8 71200 0.000358 5.00E-06
428.8 104400 0.000446 5.00E-06
428.8 132600 0.000527 6.00E-06
428.8 160200 0.000614 6.00E-06
428.8 187700 0.000702 7.00E-06
428.8 214500 0.000797 4.50E-05
428.8 214800 0.000798 4.50E-05
428.8 229800 0.000844 9.00E-06
428.8 242200 0.000887 1.10E-05
523.1 16900 0.000124 1.00E-06
523.1 17500 0.000124 1.00E-06
523.1 35200 0.000161 2.00E-06
523.1 52800 0.000198 2.00E-06
523.1 70400 0.000232 3.00E-06
523.1 71400 0.000234 3.00E-06
523.1 86700 0.000266 3.00E-06
523.1 105800 0.000304 3.00E-06
523.1 132800 0.00035 4.00E-06
523.1 159800 0.000397 4.00E-06
523.1 187700 0.000441 5.00E-06
523.1 222300 0.000504 5.00E-06
523.1 241600 0.000563 6.00E-06
293.15 1000 0.00051 9.40E-06
293.15 5000 0.0005399 9.90E-06
293.15 10000 0.0005733 1.03E-05
293.15 20000 0.0006366 1.13E-05
293.15 30000 0.0007059 1.23E-05
293.15 40000 0.0007817 1.35E-05
293.15 50000 0.0008608 1.47E-05
293.15 60000 0.0009567 1.61E-05
293.15 70000 0.0010416 1.74E-05
293.15 80000 0.0011268 1.87E-05
293.15 100000 0.0013157 2.16E-05
293.15 120000 0.001518 2.47E-05
293.15 140000 0.0017391 2.82E-05
298.15 1000 0.0004819 9.00E-06
298.15 5000 0.000509 9.40E-06
298.15 10000 0.0005388 9.80E-06
298.15 20000 0.0006027 1.08E-05
298.15 30000 0.0006672 1.17E-05
298.15 40000 0.0007394 1.28E-05
298.15 50000 0.0008154 1.40E-05
298.15 60000 0.0008956 1.52E-05
298.15 70000 0.0009815 1.65E-05
298.15 80000 0.0010698 1.78E-05
298.15 100000 0.0012345 2.04E-05
298.15 120000 0.0014345 2.35E-05
298.15 140000 0.001648 2.68E-05
313.15 1000 0.0004114 8.00E-06
313.15 5000 0.0004353 8.30E-06
313.15 10000 0.0004633 8.70E-06
313.15 20000 0.0005177 9.50E-06
313.15 30000 0.0005775 1.04E-05
313.15 40000 0.0006351 1.13E-05
313.15 50000 0.0006902 1.21E-05
313.15 60000 0.0007509 1.30E-05
313.15 70000 0.0008173 1.40E-05
313.15 80000 0.0008861 1.50E-05
313.15 100000 0.001045 1.75E-05
313.15 120000 0.0011953 1.98E-05
313.15 140000 0.0013627 2.23E-05
323.15 1000 0.0003694 7.40E-06
323.15 5000 0.0003915 7.70E-06
323.15 10000 0.0004157 8.10E-06
323.15 20000 0.000464 8.80E-06
323.15 30000 0.0005146 9.50E-06
323.15 40000 0.0005714 1.03E-05
323.15 50000 0.0006255 1.11E-05
323.15 60000 0.0006832 1.20E-05
323.15 70000 0.000742 1.29E-05
323.15 80000 0.0007969 1.37E-05
323.15 100000 0.0009249 1.56E-05
323.15 120000 0.0010679 1.78E-05
323.15 140000 0.0012102 2.00E-05
333.15 1000 0.0003296 6.90E-06
333.15 5000 0.0003515 7.20E-06
333.15 10000 0.0003754 7.50E-06
333.15 20000 0.0004216 8.10E-06
333.15 30000 0.0004705 8.80E-06
333.15 40000 0.0005232 9.60E-06
333.15 50000 0.000579 1.04E-05
333.15 60000 0.0006246 1.11E-05
333.15 70000 0.0006779 1.19E-05
333.15 80000 0.000728 1.26E-05
333.15 100000 0.0008361 1.43E-05
333.15 120000 0.0009606 1.62E-05
333.15 140000 0.0010951 1.82E-05
348.15 1000 0.0002863 6.30E-06
348.15 5000 0.000306 6.60E-06
348.15 10000 0.0003274 6.80E-06
348.15 20000 0.0003692 7.40E-06
348.15 30000 0.0004131 8.00E-06
348.15 40000 0.0004565 8.60E-06
348.15 50000 0.0005022 9.30E-06
348.15 60000 0.0005476 1.00E-05
348.15 70000 0.0006049 1.08E-05
348.15 80000 0.0006507 1.15E-05
348.15 100000 0.0007538 1.30E-05
348.15 120000 0.000864 1.47E-05
348.15 140000 0.000977 1.64E-05
353.15 1000 0.0002748 6.10E-06
353.15 5000 0.0002923 6.40E-06
353.15 10000 0.0003175 6.70E-06
353.15 20000 0.000357 7.20E-06
353.15 30000 0.0003966 7.80E-06
353.15 40000 0.0004379 8.40E-06
353.15 50000 0.0004853 9.10E-06
353.15 60000 0.0005294 9.70E-06
353.15 70000 0.0005738 1.03E-05
353.15 80000 0.0006288 1.12E-05
353.15 100000 0.0007176 1.25E-05
353.15 120000 0.0008245 1.41E-05
353.15 140000 0.0009332 1.58E-05
293.15 5000 0.0005412 2.68E-05
293.15 10000 0.0005744 2.85E-05
293.15 20000 0.0006401 3.17E-05
293.15 30000 0.0007047 3.49E-05
293.15 40000 0.0007738 3.84E-05
293.15 60000 0.0009262 4.59E-05
293.15 80000 0.0011148 5.53E-05
293.15 100000 0.0012975 6.43E-05
313.15 5000 0.0004251 2.11E-05
313.15 10000 0.0004517 2.24E-05
313.15 20000 0.0005129 2.54E-05
313.15 30000 0.0005662 2.81E-05
313.15 40000 0.0006128 3.04E-05
313.15 60000 0.0007307 3.62E-05
313.15 80000 0.0008553 4.24E-05
313.15 100000 0.0010242 5.08E-05
313.15 120000 0.0011845 5.87E-05
333.15 5000 0.0003468 1.72E-05
333.15 10000 0.00037 1.84E-05
333.15 20000 0.0004153 2.06E-05
333.15 30000 0.000459 2.28E-05
333.15 40000 0.0005083 2.52E-05
333.15 60000 0.0006083 3.02E-05
333.15 80000 0.0006981 3.46E-05
333.15 100000 0.0008101 4.02E-05
333.15 120000 0.0009406 4.66E-05
293.138 5.15085 0.000503 8.00E-06
363.123 77.4286 0.0002456 3.00E-06
278.147 2.32038 0.0006077 2.00E-06
288.141 3.99251 0.0005344 2.00E-06
303.134 8.31979 0.0004472 1.50E-06
318.128 15.9692 0.0003802 1.20E-06
333.124 28.593 0.0003272 1.20E-06
363.123 77.4286 0.0002478 1.00E-06
278.147 2.32038 0.0006205 4.80E-06
283.144 3.06128 0.000586 4.00E-06
288.141 3.99251 0.000554 3.80E-06
293.138 5.15085 0.00053 3.50E-06
273.1 1.73229 0.000649758 1.70E-05
293.138 5.15085 0.000501719 1.31E-05
313.13 12.9567 0.000403767 1.01E-05
273.15 1.73742 0.000649721 3.19E-06
293.138 5.15085 0.000510715 2.21E-06
313.13 12.9567 0.000403767 1.89E-06
293.138 5.15085 0.000502 6.00E-06
298.136 6.57797 0.000477 7.00E-06
293.138 5.15085 0.000498 1.30E-05
313.13 12.9567 0.000398 1.10E-05
333.124 28.593 0.000327 9.00E-06
293.138 5.15085 0.000507947 4.15E-06
333.124 28.593 0.000331599 3.29E-06
293.145 5.15275 0.000504482 8.30E-06
298.144 6.58061 0.000479428 7.57E-06
293.145 5.15275 0.000504178 4.12E-06
293.145 5.15275 0.000504178 1.30E-05
293.145 5.15275 0.000504607 1.30E-05
298.144 6.58061 0.000475996 1.23E-05
298.144 6.58061 0.0004788 1.00E-06
298.134 6.57746 0.0004718 1.93E-05
323.127 19.5311 0.0003587 1.47E-05
348.141 48.2868 0.0002818 1.16E-05
373.104 103.485 0.000227 9.00E-06
298.144 6.58061 0.000496 9.00E-06
298.144 6.58061 0.00047709 4.20E-06
298.15 6.58239 0.000469933 1.22E-05
303.15 8.32593 0.0004474 5.40E-06
313.15 12.9677 0.0004008 5.20E-06
298.15 6.58239 0.000478 1.30E-05
303.15 8.32593 0.000451 1.30E-05
308.15 10.4357 0.000426 1.20E-05
313.15 12.9677 0.000404 1.20E-05
318.15 15.9833 0.000381 1.10E-05
298.15 6.58239 0.000484 2.00E-05
298.15 6.58239 0.000462 1.30E-05
303.15 8.32593 0.000436 1.30E-05
308.15 10.4357 0.000412 1.20E-05
313.15 12.9677 0.000391 1.20E-05
197.93 0.00245442 0.00319 3.00E-05
222.91 0.0389422 0.00158 2.00E-05
248.35 0.335108 0.000939 1.00E-05
273.15 1.73742 0.00065 7.00E-06
298.15 6.58239 0.000473 6.00E-06
298.15 6.58239 0.000474 6.00E-06
323.16 19.5565 0.000365 5.00E-06
348.16 48.3179 0.000289 5.00E-06
298.15 6.58239 0.000472 4.00E-06
197.93 0.00245442 0.00319 2.00E-05
222.91 0.0389422 0.00158 1.00E-05
248.35 0.335108 0.000939 1.00E-05
273.15 1.73742 0.00065 8.00E-06
298.15 6.58239 0.000473 7.00E-06
298.15 6.58239 0.000474 7.00E-06
323.16 19.5565 0.000365 7.00E-06
348.16 48.3179 0.000289 6.00E-06
298.15 6.58239 0.000472 4.00E-06
298.15 6.58239 0.000492 4.00E-06
303.15 8.32593 0.000466 4.00E-06
308.15 10.4357 0.000441 3.00E-06
298.15 6.58239 0.0004842 4.50E-06
298.15 6.58239 0.0004804 4.40E-06
298.15 6.58239 0.0004784 5.00E-06
303.15 8.32593 0.0004517 4.70E-06
308.15 10.4357 0.0004264 4.50E-06
313.15 12.9677 0.0004056 4.30E-06
318.15 15.9833 0.0003848 4.20E-06
323.15 19.5488 0.0003652 4.00E-06
298.15 6.58239 0.0004784 5.00E-06
298.15 6.58239 0.000472 5.00E-06
303.15 8.32593 0.000447 3.50E-06
298.15 6.58239 0.00047 5.00E-06
308.15 10.4357 0.000413 5.00E-06
323.15 19.5488 0.000361 4.00E-06
288.15 3.99438 0.000537 5.00E-06
298.15 6.58239 0.00048 4.00E-06
308.15 10.4357 0.000432 4.00E-06
298.15 6.58239 0.000474 1.00E-05
308.15 10.4357 0.000422 9.00E-06
308.15 10.4357 0.000426 9.00E-06
318.15 15.9833 0.000382 8.00E-06
293.15 5.15394 0.0005015 5.00E-06
298.15 6.58239 0.0004716 4.90E-06
303.15 8.32593 0.000445 4.70E-06
313.15 12.9677 0.0003999 4.50E-06
323.15 19.5488 0.0003593 4.30E-06
333.15 28.6203 0.0003263 4.10E-06
343.15 40.8145 0.0002965 4.00E-06
298.15 6.58239 0.000474 1.40E-05
298.15 6.58239 0.000475 1.40E-05
308.15 10.4357 0.000425 1.40E-05
318.15 15.9833 0.00038 1.30E-05
308.15 10.4357 0.0004335 4.60E-06
298.15 6.58239 0.00048 9.00E-06
303.15 8.32593 0.000453 9.00E-06
308.15 10.4357 0.000427 8.00E-06
288.15 3.99438 0.000537 7.00E-06
298.15 6.58239 0.00048 7.00E-06
308.15 10.4357 0.000432 7.00E-06
293.15 5.15394 0.000507109 8.86E-06
298.15 6.58239 0.0004797 8.46E-06
303.15 8.32593 0.000453598 8.07E-06
313.15 12.9677 0.000406592 7.36E-06
323.15 19.5488 0.000366233 6.73E-06
298.15 6.58239 0.000477 1.20E-05
303.15 8.32593 0.000455 5.00E-06
303.15 8.32593 0.000455 3.00E-06
288.15 3.99438 0.000537 1.30E-05
298.15 6.58239 0.00048 1.30E-05
298.15 6.58239 0.000481 1.30E-05
308.15 10.4357 0.000434 1.20E-05
288.15 3.99438 0.000537 1.10E-05
298.15 6.58239 0.000481 1.10E-05
308.15 10.4357 0.000434 1.00E-05
293.15 5.15394 0.000503 9.00E-06
298.15 6.58239 0.000475 9.00E-06
303.15 8.32593 0.000447 9.00E-06
313.15 12.9677 0.000404 9.00E-06
323.15 19.5488 0.000365 9.00E-06
288.15 3.99438 0.0005439 4.00E-06
293.15 5.15394 0.0005125 3.80E-06
298.15 6.58239 0.0004844 3.60E-06
303.15 8.32593 0.0004586 3.50E-06
308.15 10.4357 0.0004216 3.20E-06
313.15 12.9677 0.000413 3.20E-06
293.15 5.15394 0.000501 4.00E-06
298.15 6.58239 0.000473 4.00E-06
303.15 8.32593 0.000447 4.00E-06
308.15 10.4357 0.000423 4.00E-06
318.15 15.9833 0.00038 4.00E-06
323.15 19.5488 0.000361 3.00E-06
328.15 23.7356 0.000343 3.00E-06
333.15 28.6203 0.000326 5.00E-06
298.15 6.58239 0.000478 6.00E-06
303.15 8.32593 0.000453 5.00E-06
308.15 10.4357 0.000429 5.00E-06
313.15 12.9677 0.000408 5.00E-06
318.15 15.9833 0.000388 5.00E-06
323.15 19.5488 0.000369 5.00E-06
293.15 5.15394 0.000518 1.10E-05
298.15 6.58239 0.000492 1.00E-05
303.15 8.32593 0.00047 1.00E-05
293.15 5.15394 0.000518 8.30E-05
298.15 6.58239 0.000493 7.90E-05
303.15 8.32593 0.00047 7.50E-05
308.15 10.4357 0.000449 7.20E-05
313.15 12.9677 0.00043 6.90E-05
293.15 5.15394 0.0005064 9.40E-06
298.15 6.58239 0.0004746 8.90E-06
313.15 12.9677 0.0004035 7.90E-06
323.15 19.5488 0.0003645 7.30E-06
333.15 28.6203 0.0003265 6.80E-06
348.15 48.3019 0.0002829 6.30E-06
353.15 56.8427 0.0002738 6.10E-06
400 208.197 0.0001801 0.00012
410 262.938 0.0001651 0.000111
420 327.981 0.0001519 0.000104
430 404.511 0.0001403 9.73E-05
440 493.767 0.0001301 9.18E-05
450 597.049 0.000121 8.72E-05
460 715.727 0.0001129 8.32E-05
470 851.259 0.0001057 7.98E-05
480 1005.21 9.92E-05 7.70E-05
490 1179.29 9.33E-05 7.45E-05
500 1375.42 8.80E-05 7.24E-05
510 1595.78 8.32E-05 7.07E-05
520 1843.02 7.88E-05 6.92E-05
530 2120.54 7.49E-05 6.80E-05
540 2433.52 7.12E-05 6.70E-05
